PE FL                   SPECTRUM    ASCII       PEDS        1.60        
  -1
SR-D1C~2.SP
21/03/03
15:34:34.00
21/03/03
15:34:34.00


675.500000
1









LS50-B
315.00
15.00
2.50
SCAN
1
20
100
100
0
60
0
1
0
1
7
ON
650 315 NORM
0 0 0
#HDR
-1
-1
#GR
NM

0.00002384185791015625
0.0
320.000000 <- Lambda-Start
0.500000  <- Inkremente
712 <- Anzahl der Einträge an #DATA | Ohne #DATA wären es 711
8
89.843655
0.062750
#DATA
320.000000	1.232000  
320.500000	1.142500  
321.000000	1.054465  
321.500000	0.968571  
322.000000	0.883681  
322.500000	0.799756  
323.000000	0.717450  
323.500000	0.636357  
324.000000	0.556379  
324.500000	0.479411  
325.000000	0.407185  
325.500000	0.342254  
326.000000	0.285066  
326.500000	0.235678  
327.000000	0.194426  
327.500000	0.161418  
328.000000	0.135256  
328.500000	0.115187  
329.000000	0.099775  
329.500000	0.088678  
330.000000	0.081023  
330.500000	0.075653  
331.000000	0.071495  
331.500000	0.068799  
332.000000	0.066892  
332.500000	0.065273  
333.000000	0.063931  
333.500000	0.063010  
334.000000	0.062750  
334.500000	0.063280  
335.000000	0.064101  
335.500000	0.065564  
336.000000	0.067262  
336.500000	0.068765  
337.000000	0.070269  
337.500000	0.071635  
338.000000	0.072706  
338.500000	0.073413  
339.000000	0.073838  
339.500000	0.074211  
340.000000	0.074450  
340.500000	0.074467  
341.000000	0.074773  
341.500000	0.075221  
342.000000	0.076086  
342.500000	0.076818  
343.000000	0.077799  
343.500000	0.078887  
344.000000	0.079700  
344.500000	0.080375  
345.000000	0.081181  
345.500000	0.081808  
346.000000	0.082566  
346.500000	0.083198  
347.000000	0.084170  
347.500000	0.085463  
348.000000	0.086778  
348.500000	0.088241  
349.000000	0.089808  
349.500000	0.090821  
350.000000	0.091411  
350.500000	0.091506  
351.000000	0.091230  
351.500000	0.090987  
352.000000	0.090614  
352.500000	0.090540  
353.000000	0.091038  
353.500000	0.091797  
354.000000	0.092575  
354.500000	0.093424  
355.000000	0.093846  
355.500000	0.094278  
356.000000	0.094396  
356.500000	0.094478  
357.000000	0.094980  
357.500000	0.095864  
358.000000	0.096795  
358.500000	0.097961  
359.000000	0.098780  
359.500000	0.099528  
360.000000	0.099928  
360.500000	0.100086  
361.000000	0.100719  
361.500000	0.101883  
362.000000	0.103420  
362.500000	0.105502  
363.000000	0.107633  
363.500000	0.109392  
364.000000	0.110497  
364.500000	0.111068  
365.000000	0.111971  
365.500000	0.113353  
366.000000	0.115213  
366.500000	0.117616  
367.000000	0.120338  
367.500000	0.122952  
368.000000	0.124719  
368.500000	0.125400  
369.000000	0.125773  
369.500000	0.126452  
370.000000	0.127258  
370.500000	0.128575  
371.000000	0.130204  
371.500000	0.132409  
372.000000	0.134357  
372.500000	0.135232  
373.000000	0.135469  
373.500000	0.135894  
374.000000	0.136254  
374.500000	0.136987  
375.000000	0.137676  
375.500000	0.138818  
376.000000	0.140381  
376.500000	0.141525  
377.000000	0.142316  
377.500000	0.143161  
378.000000	0.143784  
378.500000	0.144275  
379.000000	0.144411  
379.500000	0.144178  
380.000000	0.144273  
380.500000	0.144346  
381.000000	0.144799  
381.500000	0.145592  
382.000000	0.146980  
382.500000	0.148538  
383.000000	0.149868  
383.500000	0.150443  
384.000000	0.150508  
384.500000	0.149618  
385.000000	0.148495  
385.500000	0.147269  
386.000000	0.146678  
386.500000	0.146601  
387.000000	0.146715  
387.500000	0.147010  
388.000000	0.147674  
388.500000	0.147896  
389.000000	0.148280  
389.500000	0.148614  
390.000000	0.149056  
390.500000	0.149648  
391.000000	0.149614  
391.500000	0.149200  
392.000000	0.148741  
392.500000	0.148008  
393.000000	0.147012  
393.500000	0.146148  
394.000000	0.145489  
394.500000	0.145271  
395.000000	0.145150  
395.500000	0.145366  
396.000000	0.145752  
396.500000	0.146383  
397.000000	0.146523  
397.500000	0.146420  
398.000000	0.146198  
398.500000	0.146028  
399.000000	0.145687  
399.500000	0.145644  
400.000000	0.145747  
400.500000	0.146441  
401.000000	0.146935  
401.500000	0.147015  
402.000000	0.146797  
402.500000	0.146234  
403.000000	0.145206  
403.500000	0.144256  
404.000000	0.143599  
404.500000	0.143422  
405.000000	0.143215  
405.500000	0.142780  
406.000000	0.142318  
406.500000	0.141825  
407.000000	0.141081  
407.500000	0.140323  
408.000000	0.139946  
408.500000	0.140058  
409.000000	0.140385  
409.500000	0.140851  
410.000000	0.141603  
410.500000	0.142327  
411.000000	0.142799  
411.500000	0.142982  
412.000000	0.143043  
412.500000	0.142937  
413.000000	0.142767  
413.500000	0.142566  
414.000000	0.142456  
414.500000	0.142431  
415.000000	0.142407  
415.500000	0.142558  
416.000000	0.142790  
416.500000	0.142952  
417.000000	0.143275  
417.500000	0.143935  
418.000000	0.144500  
418.500000	0.145092  
419.000000	0.145952  
419.500000	0.147125  
420.000000	0.148549  
420.500000	0.150278  
421.000000	0.152362  
421.500000	0.154821  
422.000000	0.156982  
422.500000	0.158933  
423.000000	0.160646  
423.500000	0.162012  
424.000000	0.163293  
424.500000	0.164734  
425.000000	0.166534  
425.500000	0.168989  
426.000000	0.171640  
426.500000	0.174493  
427.000000	0.177504  
427.500000	0.180062  
428.000000	0.182206  
428.500000	0.184370  
429.000000	0.187075  
429.500000	0.189969  
430.000000	0.193140  
430.500000	0.197144  
431.000000	0.201881  
431.500000	0.207219  
432.000000	0.212797  
432.500000	0.218971  
433.000000	0.226101  
433.500000	0.233403  
434.000000	0.240836  
434.500000	0.249144  
435.000000	0.257810  
435.500000	0.266924  
436.000000	0.276217  
436.500000	0.286017  
437.000000	0.296967  
437.500000	0.308530  
438.000000	0.321329  
438.500000	0.335954  
439.000000	0.351827  
439.500000	0.369698  
440.000000	0.388931  
440.500000	0.410230  
441.000000	0.433254  
441.500000	0.457495  
442.000000	0.482836  
442.500000	0.509124  
443.000000	0.536491  
443.500000	0.566043  
444.000000	0.597379  
444.500000	0.631318  
445.000000	0.668726  
445.500000	0.710286  
446.000000	0.756025  
446.500000	0.804758  
447.000000	0.856519  
447.500000	0.911967  
448.000000	0.971161  
448.500000	1.033418  
449.000000	1.099290  
449.500000	1.169907  
450.000000	1.245079  
450.500000	1.323040  
451.000000	1.405301  
451.500000	1.492831  
452.000000	1.588036  
452.500000	1.691088  
453.000000	1.802004  
453.500000	1.920956  
454.000000	2.048040  
454.500000	2.181422  
455.000000	2.321086  
455.500000	2.466721  
456.000000	2.619728  
456.500000	2.780625  
457.000000	2.952750  
457.500000	3.135129  
458.000000	3.328564  
458.500000	3.534071  
459.000000	3.751596  
459.500000	3.981359  
460.000000	4.225687  
460.500000	4.484293  
461.000000	4.762118  
461.500000	5.059226  
462.000000	5.375394  
462.500000	5.710672  
463.000000	6.065866  
463.500000	6.438428  
464.000000	6.829790  
464.500000	7.234377  
465.000000	7.653088  
465.500000	8.087062  
466.000000	8.539681  
466.500000	9.014073  
467.000000	9.512023  
467.500000	10.036189 
468.000000	10.592359 
468.500000	11.180023 
469.000000	11.792713 
469.500000	12.430741 
470.000000	13.092137 
470.500000	13.771021 
471.000000	14.468316 
471.500000	15.185892 
472.000000	15.927508 
472.500000	16.691023 
473.000000	17.473116 
473.500000	18.274959 
474.000000	19.095056 
474.500000	19.927224 
475.000000	20.774000 
475.500000	21.647773 
476.000000	22.552308 
476.500000	23.477864 
477.000000	24.424625 
477.500000	25.398396 
478.000000	26.400260 
478.500000	27.415262 
479.000000	28.434625 
479.500000	29.460144 
480.000000	30.496129 
480.500000	31.524739 
481.000000	32.546185 
481.500000	33.564551 
482.000000	34.595099 
482.500000	35.641278 
483.000000	36.705922 
483.500000	37.786693 
484.000000	38.897547 
484.500000	40.033191 
485.000000	41.181778 
485.500000	42.330148 
486.000000	43.476754 
486.500000	44.615881 
487.000000	45.746359 
487.500000	46.851081 
488.000000	47.930622 
488.500000	48.990228 
489.000000	50.042609 
489.500000	51.078896 
490.000000	52.103997 
490.500000	53.124855 
491.000000	54.139721 
491.500000	55.145956 
492.000000	56.137793 
492.500000	57.118603 
493.000000	58.107463 
493.500000	59.092637 
494.000000	60.066413 
494.500000	61.026396 
495.000000	61.957118 
495.500000	62.855303 
496.000000	63.711297 
496.500000	64.515670 
497.000000	65.298122 
497.500000	66.062564 
498.000000	66.824749 
498.500000	67.591612 
499.000000	68.366823 
499.500000	69.146754 
500.000000	69.925637 
500.500000	70.680275 
501.000000	71.408756 
501.500000	72.109303 
502.000000	72.792592 
502.500000	73.456993 
503.000000	74.111010 
503.500000	74.759478 
504.000000	75.413551 
504.500000	76.057885 
505.000000	76.683071 
505.500000	77.288866 
506.000000	77.880909 
506.500000	78.458443 
507.000000	79.025178 
507.500000	79.590148 
508.000000	80.166185 
508.500000	80.741299 
509.000000	81.297435 
509.500000	81.835114 
510.000000	82.350709 
510.500000	82.834191 
511.000000	83.272943 
511.500000	83.675581 
512.000000	84.066308 
512.500000	84.452489 
513.000000	84.838814 
513.500000	85.230769 
514.000000	85.639631 
514.500000	86.067946 
515.000000	86.496219 
515.500000	86.903655 
516.000000	87.283234 
516.500000	87.628094 
517.000000	87.940073 
517.500000	88.218338 
518.000000	88.467099 
518.500000	88.707346 
519.000000	88.938096 
519.500000	89.156752 
520.000000	89.343609 
520.500000	89.492674 
521.000000	89.611456 
521.500000	89.705036 
522.000000	89.768036 
522.500000	89.805663 
523.000000	89.826568 
523.500000	89.843655 
524.000000	89.841752 
524.500000	89.819336 
525.000000	89.770935 
525.500000	89.705859 
526.000000	89.623786 
526.500000	89.514342 
527.000000	89.380504 
527.500000	89.229183 
528.000000	89.050831 
528.500000	88.847836 
529.000000	88.615155 
529.500000	88.363849 
530.000000	88.097625 
530.500000	87.809851 
531.000000	87.498937 
531.500000	87.158890 
532.000000	86.791478 
532.500000	86.405969 
533.000000	86.001383 
533.500000	85.586349 
534.000000	85.157754 
534.500000	84.736907 
535.000000	84.310846 
535.500000	83.863808 
536.000000	83.396778 
536.500000	82.908993 
537.000000	82.392592 
537.500000	81.841907 
538.000000	81.237717 
538.500000	80.606775 
539.000000	79.947823 
539.500000	79.252459 
540.000000	78.521689 
540.500000	77.761058 
541.000000	76.985413 
541.500000	76.197351 
542.000000	75.383239 
542.500000	74.559937 
543.000000	73.737237 
543.500000	72.913969 
544.000000	72.086079 
544.500000	71.248629 
545.000000	70.405450 
545.500000	69.550640 
546.000000	68.668812 
546.500000	67.753693 
547.000000	66.813176 
547.500000	65.858215 
548.000000	64.888741 
548.500000	63.901267 
549.000000	62.911956 
549.500000	61.929176 
550.000000	60.952762 
550.500000	59.990372 
551.000000	59.050907 
551.500000	58.141920 
552.000000	57.251519 
552.500000	56.368790 
553.000000	55.487362 
553.500000	54.600448 
554.000000	53.699868 
554.500000	52.785226 
555.000000	51.867474 
555.500000	50.969163 
556.000000	50.092392 
556.500000	49.242043 
557.000000	48.420971 
557.500000	47.621670 
558.000000	46.840480 
558.500000	46.071525 
559.000000	45.315469 
559.500000	44.583081 
560.000000	43.866801 
560.500000	43.171771 
561.000000	42.494844 
561.500000	41.821928 
562.000000	41.155344 
562.500000	40.493655 
563.000000	39.833448 
563.500000	39.182301 
564.000000	38.540775 
564.500000	37.921012 
565.000000	37.332571 
565.500000	36.762349 
566.000000	36.208383 
566.500000	35.672918 
567.000000	35.150924 
567.500000	34.643989 
568.000000	34.144364 
568.500000	33.654721 
569.000000	33.178081 
569.500000	32.706521 
570.000000	32.242368 
570.500000	31.783532 
571.000000	31.324428 
571.500000	30.865269 
572.000000	30.407120 
572.500000	29.953056 
573.000000	29.507987 
573.500000	29.070512 
574.000000	28.652586 
574.500000	28.257959 
575.000000	27.880579 
575.500000	27.512756 
576.000000	27.148935 
576.500000	26.787528 
577.000000	26.423250 
577.500000	26.045161 
578.000000	25.658762 
578.500000	25.274269 
579.000000	24.890187 
579.500000	24.505956 
580.000000	24.123939 
580.500000	23.745685 
581.000000	23.374178 
581.500000	23.007038 
582.000000	22.642284 
582.500000	22.286894 
583.000000	21.937631 
583.500000	21.590948 
584.000000	21.245846 
584.500000	20.903717 
585.000000	20.564868 
585.500000	20.225413 
586.000000	19.880140 
586.500000	19.534728 
587.000000	19.188635 
587.500000	18.843422 
588.000000	18.496579 
588.500000	18.154426 
589.000000	17.824312 
589.500000	17.503549 
590.000000	17.189150 
590.500000	16.880653 
591.000000	16.577030 
591.500000	16.280754 
592.000000	15.985881 
592.500000	15.689952 
593.000000	15.397258 
593.500000	15.104950 
594.000000	14.814342 
594.500000	14.526493 
595.000000	14.239036 
595.500000	13.956956 
596.000000	13.684715 
596.500000	13.422213 
597.000000	13.169043 
597.500000	12.924247 
598.000000	12.686719 
598.500000	12.452116 
599.000000	12.219568 
599.500000	11.985379 
600.000000	11.753191 
600.500000	11.522758 
601.000000	11.291314 
601.500000	11.061620 
602.000000	10.835594 
602.500000	10.613885 
603.000000	10.397967 
603.500000	10.188459 
604.000000	9.985829  
604.500000	9.789616  
605.000000	9.597683  
605.500000	9.409793  
606.000000	9.224340  
606.500000	9.038812  
607.000000	8.854463  
607.500000	8.673435  
608.000000	8.497646  
608.500000	8.327153  
609.000000	8.161084  
609.500000	7.998396  
610.000000	7.837857  
610.500000	7.678635  
611.000000	7.519883  
611.500000	7.363857  
612.000000	7.213008  
612.500000	7.067172  
613.000000	6.925306  
613.500000	6.787909  
614.000000	6.652965  
614.500000	6.521187  
615.000000	6.389674  
615.500000	6.258969  
616.000000	6.130883  
616.500000	6.006547  
617.000000	5.887327  
617.500000	5.775137  
618.000000	5.665762  
618.500000	5.561267  
619.000000	5.459657  
619.500000	5.361784  
620.000000	5.264189  
620.500000	5.165642  
621.000000	5.068814  
621.500000	4.975536  
622.000000	4.881575  
622.500000	4.788116  
623.000000	4.693857  
623.500000	4.601047  
624.000000	4.507049  
624.500000	4.409750  
625.000000	4.311515  
625.500000	4.213704  
626.000000	4.117687  
626.500000	4.023185  
627.000000	3.928258  
627.500000	3.835243  
628.000000	3.742556  
628.500000	3.650269  
629.000000	3.562189  
629.500000	3.476739  
630.000000	3.396609  
630.500000	3.322400  
631.000000	3.251704  
631.500000	3.184247  
632.000000	3.117678  
632.500000	3.050336  
633.000000	2.984364  
633.500000	2.917051  
634.000000	2.851323  
634.500000	2.788004  
635.000000	2.725818  
635.500000	2.665892  
636.000000	2.606441  
636.500000	2.546172  
637.000000	2.486676  
637.500000	2.426959  
638.000000	2.367081  
638.500000	2.307928  
639.000000	2.248265  
639.500000	2.188411  
640.000000	2.129909  
640.500000	2.072618  
641.000000	2.015987  
641.500000	1.960448  
642.000000	1.906133  
642.500000	1.852984  
643.000000	1.800549  
643.500000	1.747547  
644.000000	1.695795  
644.500000	1.645243  
645.000000	1.594568  
645.500000	1.543737  
646.000000	1.494051  
646.500000	1.444601  
647.000000	1.396717  
647.500000	1.349827  
648.000000	1.304737  
648.500000	1.262379  
649.000000	1.221887  
649.500000	1.181418  
650.000000	1.141892  
650.500000	1.102271  
651.000000	1.064157  
651.500000	1.027976  
652.000000	0.994064  
652.500000	0.962810  
653.000000	0.934784  
653.500000	0.908271  
654.000000	0.882217  
654.500000	0.856357  
655.000000	0.830586  
655.500000	0.804747  
656.000000	0.779245  
656.500000	0.754693  
657.000000	0.731900  
657.500000	0.710969  
658.000000	0.690512  
658.500000	0.670788  
659.000000	0.651969  
659.500000	0.634698  
660.000000	0.618918  
660.500000	0.603896  
661.000000	0.589165  
661.500000	0.575099  
662.000000	0.559864  
662.500000	0.543948  
663.000000	0.527107  
663.500000	0.510937  
664.000000	0.496375  
664.500000	0.483920  
665.000000	0.472659  
665.500000	0.462900  
666.000000	0.453226  
666.500000	0.443704  
667.000000	0.432984  
667.500000	0.422510  
668.000000	0.412092  
668.500000	0.402288  
669.000000	0.392105  
669.500000	0.382446  
670.000000	0.372407  
670.500000	0.363004  
671.000000	0.353241  
671.500000	0.344741  
672.000000	0.337230  
672.500000	0.330685  
673.000000	0.323754  
673.500000	0.316579  
674.000000	0.308346  
674.500000	0.299678  
675.000000	0.290096  
675.500000	0.280954  

